1
19/07/2018 11:04:44 AM
Wavelength (nm)	Absorbance
220	0.448
221	0.415
222	0.393
223	0.376
224	0.348
225	0.330
226	0.317
227	0.303
228	0.298
229	0.297
230	0.295
231	0.290
232	0.293
233	0.296
234	0.300
235	0.309
236	0.316
237	0.323
238	0.334
239	0.348
240	0.359
241	0.368
242	0.378
243	0.390
244	0.408
245	0.422
246	0.429
247	0.441
248	0.455
249	0.466
250	0.475
251	0.482
252	0.489
253	0.495
254	0.505
255	0.511
256	0.508
257	0.510
258	0.507
259	0.503
260	0.500
261	0.501
262	0.498
263	0.491
264	0.486
265	0.473
266	0.462
267	0.453
268	0.438
269	0.420
270	0.406
271	0.392
272	0.379
273	0.364
274	0.353
275	0.341
276	0.329
277	0.318
278	0.303
279	0.286
280	0.273
281	0.261
282	0.243
283	0.229
284	0.214
285	0.198
286	0.186
287	0.172
288	0.156
289	0.141
290	0.129
291	0.114
292	0.099
293	0.088
294	0.078
295	0.068
296	0.060
297	0.053
298	0.048
299	0.041
300	0.036
301	0.033
302	0.026
303	0.025
304	0.022
305	0.020
306	0.018
307	0.023
308	0.020
309	0.020
310	0.022
311	0.020
312	0.019
313	0.017
314	0.013
315	0.009
316	0.007
317	0.005
318	0.005
319	0.005
320	0.007
321	0.007
322	0.010
323	0.012
324	0.011
325	0.010
326	0.006
327	0.003
328	0.003
329	0.000
330	0.001
331	-0.002
332	0.001
333	0.003
334	0.005
335	0.001
336	-0.001
337	-0.001
338	-0.002
339	-0.001
340	0.000
341	0.000
342	-0.002
343	-0.002
344	-0.002
345	-0.003
346	-0.003
347	-0.002
348	-0.004
349	-0.007
350	-0.007


2
19/07/2018 11:05:46 AM
Wavelength (nm)	Absorbance
220	2.629
221	2.540
222	2.465
223	2.411
224	2.362
225	2.315
226	2.278
227	2.242
228	2.219
229	2.202
230	2.187
231	2.169
232	2.152
233	2.136
234	2.111
235	2.095
236	2.086
237	2.086
238	2.089
239	2.100
240	2.104
241	2.111
242	2.121
243	2.135
244	2.140
245	2.146
246	2.157
247	2.165
248	2.177
249	2.189
250	2.196
251	2.198
252	2.212
253	2.224
254	2.221
255	2.218
256	2.212
257	2.188
258	2.172
259	2.157
260	2.144
261	2.125
262	2.103
263	2.077
264	2.048
265	2.015
266	1.970
267	1.930
268	1.886
269	1.849
270	1.813
271	1.777
272	1.734
273	1.694
274	1.655
275	1.617
276	1.574
277	1.525
278	1.480
279	1.431
280	1.388
281	1.344
282	1.299
283	1.251
284	1.204
285	1.161
286	1.118
287	1.073
288	1.027
289	0.983
290	0.938
291	0.896
292	0.851
293	0.813
294	0.770
295	0.728
296	0.695
297	0.664
298	0.640
299	0.610
300	0.584
301	0.558
302	0.536
303	0.513
304	0.489
305	0.468
306	0.448
307	0.434
308	0.416
309	0.400
310	0.390
311	0.377
312	0.362
313	0.350
314	0.337
315	0.321
316	0.309
317	0.298
318	0.284
319	0.276
320	0.268
321	0.258
322	0.243
323	0.233
324	0.220
325	0.208
326	0.194
327	0.176
328	0.163
329	0.147
330	0.136
331	0.122
332	0.109
333	0.098
334	0.086
335	0.071
336	0.053
337	0.038
338	0.026
339	0.011
340	0.000
341	-0.012
342	-0.024
343	-0.031
344	-0.041
345	-0.053
346	-0.067
347	-0.074
348	-0.084
349	-0.099
350	-0.110


5
19/07/2018 11:06:31 AM
Wavelength (nm)	Absorbance
220	1.514
221	1.447
222	1.382
223	1.329
224	1.275
225	1.232
226	1.202
227	1.177
228	1.163
229	1.151
230	1.144
231	1.140
232	1.139
233	1.141
234	1.141
235	1.152
236	1.167
237	1.191
238	1.223
239	1.268
240	1.308
241	1.341
242	1.373
243	1.409
244	1.443
245	1.471
246	1.503
247	1.528
248	1.557
249	1.587
250	1.609
251	1.627
252	1.658
253	1.693
254	1.706
255	1.720
256	1.730
257	1.722
258	1.715
259	1.711
260	1.702
261	1.689
262	1.674
263	1.651
264	1.624
265	1.595
266	1.557
267	1.518
268	1.480
269	1.439
270	1.408
271	1.375
272	1.335
273	1.295
274	1.257
275	1.218
276	1.172
277	1.127
278	1.080
279	1.031
280	0.986
281	0.942
282	0.895
283	0.848
284	0.802
285	0.758
286	0.713
287	0.667
288	0.620
289	0.574
290	0.531
291	0.488
292	0.445
293	0.405
294	0.366
295	0.329
296	0.299
297	0.277
298	0.258
299	0.234
300	0.215
301	0.199
302	0.186
303	0.173
304	0.161
305	0.146
306	0.134
307	0.127
308	0.117
309	0.112
310	0.110
311	0.107
312	0.101
313	0.096
314	0.095
315	0.094
316	0.095
317	0.092
318	0.086
319	0.085
320	0.086
321	0.084
322	0.079
323	0.073
324	0.070
325	0.066
326	0.061
327	0.052
328	0.046
329	0.041
330	0.041
331	0.035
332	0.031
333	0.029
334	0.026
335	0.020
336	0.016
337	0.011
338	0.007
339	0.005
340	0.000
341	-0.002
342	-0.005
343	-0.006
344	-0.009
345	-0.013
346	-0.019
347	-0.021
348	-0.021
349	-0.024
350	-0.024


6
19/07/2018 11:07:21 AM
Wavelength (nm)	Absorbance
220	0.364
221	0.334
222	0.308
223	0.293
224	0.277
225	0.257
226	0.249
227	0.241
228	0.236
229	0.234
230	0.233
231	0.228
232	0.228
233	0.229
234	0.229
235	0.229
236	0.232
237	0.235
238	0.240
239	0.249
240	0.255
241	0.258
242	0.265
243	0.271
244	0.282
245	0.290
246	0.295
247	0.300
248	0.308
249	0.315
250	0.321
251	0.326
252	0.330
253	0.334
254	0.338
255	0.344
256	0.343
257	0.346
258	0.343
259	0.341
260	0.339
261	0.337
262	0.335
263	0.330
264	0.326
265	0.318
266	0.309
267	0.302
268	0.292
269	0.281
270	0.271
271	0.264
272	0.255
273	0.246
274	0.237
275	0.229
276	0.220
277	0.213
278	0.202
279	0.191
280	0.184
281	0.175
282	0.165
283	0.157
284	0.148
285	0.138
286	0.129
287	0.122
288	0.112
289	0.101
290	0.094
291	0.085
292	0.077
293	0.070
294	0.064
295	0.056
296	0.050
297	0.046
298	0.042
299	0.036
300	0.034
301	0.030
302	0.028
303	0.025
304	0.025
305	0.024
306	0.022
307	0.025
308	0.022
309	0.022
310	0.023
311	0.021
312	0.017
313	0.016
314	0.014
315	0.011
316	0.009
317	0.007
318	0.006
319	0.010
320	0.013
321	0.012
322	0.012
323	0.014
324	0.015
325	0.016
326	0.011
327	0.008
328	0.007
329	0.007
330	0.010
331	0.010
332	0.007
333	0.007
334	0.011
335	0.005
336	0.004
337	0.001
338	0.002
339	-0.001
340	0.000
341	0.000
342	0.000
343	0.003
344	0.003
345	0.003
346	0.004
347	0.008
348	0.007
349	0.007
350	0.008


8
19/07/2018 11:08:01 AM
Wavelength (nm)	Absorbance
220	7.486
221	7.395
222	7.356
223	7.290
224	7.272
225	7.296
226	7.334
227	7.311
228	7.261
229	7.215
230	7.161
231	7.104
232	7.033
233	6.938
234	6.792
235	6.645
236	6.539
237	6.457
238	6.395
239	6.352
240	6.309
241	6.265
242	6.224
243	6.205
244	6.184
245	6.157
246	6.123
247	6.079
248	6.031
249	6.009
250	5.985
251	5.940
252	5.883
253	5.819
254	5.775
255	5.741
256	5.720
257	5.675
258	5.628
259	5.587
260	5.546
261	5.502
262	5.453
263	5.398
264	5.318
265	5.215
266	5.120
267	5.042
268	4.965
269	4.889
270	4.817
271	4.740
272	4.661
273	4.575
274	4.493
275	4.415
276	4.321
277	4.223
278	4.128
279	4.035
280	3.947
281	3.861
282	3.766
283	3.674
284	3.582
285	3.491
286	3.399
287	3.300
288	3.204
289	3.110
290	3.018
291	2.921
292	2.827
293	2.741
294	2.656
295	2.564
296	2.480
297	2.405
298	2.337
299	2.263
300	2.193
301	2.124
302	2.051
303	1.983
304	1.921
305	1.861
306	1.803
307	1.748
308	1.687
309	1.633
310	1.584
311	1.531
312	1.479
313	1.428
314	1.373
315	1.320
316	1.267
317	1.215
318	1.163
319	1.110
320	1.054
321	0.999
322	0.944
323	0.892
324	0.840
325	0.789
326	0.739
327	0.687
328	0.633
329	0.576
330	0.529
331	0.471
332	0.415
333	0.363
334	0.311
335	0.256
336	0.209
337	0.156
338	0.103
339	0.053
340	0.000
341	-0.051
342	-0.099
343	-0.144
344	-0.189
345	-0.232
346	-0.277
347	-0.317
348	-0.357
349	-0.403
350	-0.446


13
19/07/2018 11:08:55 AM
Wavelength (nm)	Absorbance
220	2.851
221	2.758
222	2.678
223	2.611
224	2.550
225	2.499
226	2.457
227	2.420
228	2.395
229	2.375
230	2.357
231	2.341
232	2.327
233	2.313
234	2.294
235	2.282
236	2.276
237	2.283
238	2.298
239	2.323
240	2.341
241	2.361
242	2.381
243	2.406
244	2.431
245	2.446
246	2.466
247	2.481
248	2.503
249	2.523
250	2.537
251	2.546
252	2.564
253	2.586
254	2.589
255	2.597
256	2.595
257	2.584
258	2.569
259	2.556
260	2.543
261	2.525
262	2.503
263	2.473
264	2.439
265	2.391
266	2.340
267	2.292
268	2.241
269	2.190
270	2.148
271	2.103
272	2.051
273	2.002
274	1.953
275	1.902
276	1.844
277	1.786
278	1.723
279	1.664
280	1.606
281	1.550
282	1.489
283	1.434
284	1.380
285	1.325
286	1.270
287	1.211
288	1.153
289	1.097
290	1.042
291	0.985
292	0.926
293	0.877
294	0.827
295	0.777
296	0.736
297	0.701
298	0.669
299	0.637
300	0.609
301	0.582
302	0.556
303	0.533
304	0.508
305	0.484
306	0.467
307	0.449
308	0.432
309	0.414
310	0.404
311	0.391
312	0.375
313	0.362
314	0.347
315	0.333
316	0.321
317	0.309
318	0.292
319	0.283
320	0.276
321	0.267
322	0.252
323	0.241
324	0.229
325	0.217
326	0.203
327	0.187
328	0.174
329	0.157
330	0.146
331	0.128
332	0.112
333	0.099
334	0.090
335	0.071
336	0.055
337	0.041
338	0.026
339	0.012
340	0.000
341	-0.013
342	-0.026
343	-0.034
344	-0.041
345	-0.053
346	-0.064
347	-0.071
348	-0.084
349	-0.095
350	-0.102


14
19/07/2018 11:09:53 AM
Wavelength (nm)	Absorbance
220	0.802
221	0.757
222	0.715
223	0.680
224	0.647
225	0.619
226	0.599
227	0.583
228	0.578
229	0.576
230	0.577
231	0.575
232	0.580
233	0.585
234	0.597
235	0.616
236	0.631
237	0.653
238	0.680
239	0.712
240	0.740
241	0.766
242	0.793
243	0.822
244	0.855
245	0.882
246	0.902
247	0.928
248	0.959
249	0.985
250	1.004
251	1.020
252	1.043
253	1.067
254	1.087
255	1.101
256	1.104
257	1.102
258	1.096
259	1.094
260	1.091
261	1.083
262	1.073
263	1.058
264	1.044
265	1.022
266	0.998
267	0.972
268	0.939
269	0.908
270	0.884
271	0.857
272	0.831
273	0.802
274	0.775
275	0.747
276	0.719
277	0.690
278	0.657
279	0.621
280	0.587
281	0.558
282	0.524
283	0.491
284	0.457
285	0.425
286	0.396
287	0.368
288	0.337
289	0.307
290	0.280
291	0.252
292	0.223
293	0.199
294	0.172
295	0.146
296	0.128
297	0.111
298	0.097
299	0.080
300	0.070
301	0.061
302	0.054
303	0.051
304	0.045
305	0.038
306	0.037
307	0.041
308	0.039
309	0.040
310	0.039
311	0.034
312	0.033
313	0.031
314	0.027
315	0.023
316	0.019
317	0.018
318	0.017
319	0.018
320	0.021
321	0.020
322	0.017
323	0.016
324	0.017
325	0.014
326	0.009
327	0.006
328	0.003
329	0.006
330	0.010
331	0.010
332	0.006
333	0.010
334	0.014
335	0.011
336	0.005
337	0.001
338	-0.001
339	-0.001
340	0.000
341	0.000
342	-0.001
343	0.002
344	0.005
345	0.003
346	0.000
347	0.005
348	0.001
349	-0.002
350	-0.003


15
19/07/2018 11:11:05 AM
Wavelength (nm)	Absorbance
220	0.293
221	0.272
222	0.254
223	0.238
224	0.217
225	0.205
226	0.195
227	0.186
228	0.184
229	0.183
230	0.182
231	0.177
232	0.178
233	0.178
234	0.180
235	0.184
236	0.186
237	0.189
238	0.192
239	0.201
240	0.204
241	0.207
242	0.209
243	0.214
244	0.223
245	0.230
246	0.234
247	0.239
248	0.248
249	0.254
250	0.259
251	0.263
252	0.268
253	0.269
254	0.274
255	0.278
256	0.274
257	0.276
258	0.276
259	0.273
260	0.273
261	0.273
262	0.270
263	0.266
264	0.265
265	0.258
266	0.250
267	0.245
268	0.236
269	0.226
270	0.217
271	0.211
272	0.202
273	0.194
274	0.189
275	0.183
276	0.175
277	0.170
278	0.164
279	0.154
280	0.148
281	0.142
282	0.132
283	0.125
284	0.116
285	0.108
286	0.101
287	0.094
288	0.087
289	0.080
290	0.074
291	0.067
292	0.057
293	0.051
294	0.045
295	0.038
296	0.033
297	0.029
298	0.025
299	0.020
300	0.020
301	0.019
302	0.017
303	0.016
304	0.017
305	0.014
306	0.013
307	0.017
308	0.017
309	0.016
310	0.016
311	0.013
312	0.010
313	0.009
314	0.007
315	0.003
316	0.001
317	0.000
318	-0.001
319	0.002
320	0.005
321	0.005
322	0.006
323	0.009
324	0.007
325	0.005
326	0.003
327	0.001
328	0.000
329	0.000
330	0.001
331	0.000
332	0.003
333	0.007
334	0.010
335	0.006
336	0.005
337	0.003
338	0.002
339	0.002
340	0.000
341	-0.001
342	0.003
343	0.006
344	0.005
345	0.002
346	0.000
347	-0.001
348	-0.001
349	-0.005
350	-0.010


17
19/07/2018 11:11:48 AM
Wavelength (nm)	Absorbance
220	1.880
221	1.812
222	1.754
223	1.697
224	1.645
225	1.600
226	1.569
227	1.539
228	1.524
229	1.511
230	1.500
231	1.492
232	1.487
233	1.483
234	1.476
235	1.478
236	1.485
237	1.500
238	1.522
239	1.553
240	1.575
241	1.600
242	1.623
243	1.654
244	1.678
245	1.700
246	1.723
247	1.742
248	1.770
249	1.793
250	1.812
251	1.822
252	1.847
253	1.873
254	1.881
255	1.892
256	1.898
257	1.885
258	1.873
259	1.868
260	1.858
261	1.845
262	1.828
263	1.806
264	1.780
265	1.749
266	1.712
267	1.672
268	1.631
269	1.588
270	1.557
271	1.521
272	1.480
273	1.441
274	1.405
275	1.367
276	1.323
277	1.279
278	1.231
279	1.180
280	1.131
281	1.087
282	1.033
283	0.982
284	0.934
285	0.890
286	0.847
287	0.802
288	0.753
289	0.707
290	0.666
291	0.624
292	0.578
293	0.537
294	0.496
295	0.458
296	0.429
297	0.404
298	0.383
299	0.359
300	0.343
301	0.326
302	0.309
303	0.295
304	0.279
305	0.263
306	0.252
307	0.246
308	0.234
309	0.226
310	0.220
311	0.214
312	0.203
313	0.195
314	0.186
315	0.177
316	0.171
317	0.164
318	0.157
319	0.153
320	0.153
321	0.149
322	0.141
323	0.135
324	0.127
325	0.122
326	0.114
327	0.105
328	0.097
329	0.087
330	0.084
331	0.076
332	0.071
333	0.063
334	0.060
335	0.047
336	0.035
337	0.026
338	0.018
339	0.009
340	0.000
341	-0.002
342	-0.009
343	-0.009
344	-0.013
345	-0.020
346	-0.028
347	-0.032
348	-0.040
349	-0.052
350	-0.059


18
19/07/2018 11:12:41 AM
Wavelength (nm)	Absorbance
220	0.894
221	0.844
222	0.802
223	0.766
224	0.732
225	0.704
226	0.685
227	0.668
228	0.666
229	0.665
230	0.663
231	0.661
232	0.665
233	0.669
234	0.677
235	0.693
236	0.705
237	0.724
238	0.748
239	0.775
240	0.798
241	0.821
242	0.846
243	0.872
244	0.904
245	0.928
246	0.948
247	0.972
248	1.001
249	1.028
250	1.049
251	1.064
252	1.083
253	1.106
254	1.123
255	1.136
256	1.139
257	1.136
258	1.127
259	1.124
260	1.119
261	1.112
262	1.103
263	1.089
264	1.077
265	1.057
266	1.037
267	1.014
268	0.981
269	0.951
270	0.926
271	0.899
272	0.870
273	0.841
274	0.814
275	0.787
276	0.762
277	0.732
278	0.700
279	0.662
280	0.630
281	0.598
282	0.563
283	0.527
284	0.492
285	0.461
286	0.432
287	0.402
288	0.370
289	0.340
290	0.311
291	0.283
292	0.254
293	0.229
294	0.203
295	0.179
296	0.160
297	0.143
298	0.128
299	0.114
300	0.104
301	0.094
302	0.084
303	0.075
304	0.069
305	0.063
306	0.061
307	0.060
308	0.054
309	0.052
310	0.052
311	0.048
312	0.043
313	0.041
314	0.038
315	0.035
316	0.034
317	0.031
318	0.031
319	0.033
320	0.037
321	0.034
322	0.031
323	0.030
324	0.031
325	0.028
326	0.025
327	0.020
328	0.019
329	0.017
330	0.019
331	0.014
332	0.010
333	0.011
334	0.011
335	0.006
336	0.003
337	0.001
338	-0.001
339	0.000
340	0.000
341	0.002
342	0.003
343	0.007
344	0.003
345	0.001
346	-0.002
347	0.000
348	-0.004
349	-0.009
350	-0.009


20
19/07/2018 11:13:26 AM
Wavelength (nm)	Absorbance
220	0.970
221	0.915
222	0.872
223	0.831
224	0.794
225	0.764
226	0.740
227	0.722
228	0.716
229	0.714
230	0.711
231	0.711
232	0.716
233	0.721
234	0.732
235	0.751
236	0.770
237	0.794
238	0.827
239	0.864
240	0.894
241	0.923
242	0.956
243	0.987
244	1.023
245	1.052
246	1.075
247	1.103
248	1.137
249	1.166
250	1.187
251	1.206
252	1.230
253	1.258
254	1.278
255	1.295
256	1.301
257	1.296
258	1.286
259	1.286
260	1.282
261	1.274
262	1.263
263	1.243
264	1.226
265	1.205
266	1.181
267	1.151
268	1.116
269	1.078
270	1.049
271	1.020
272	0.988
273	0.954
274	0.922
275	0.889
276	0.858
277	0.826
278	0.787
279	0.745
280	0.704
281	0.667
282	0.626
283	0.588
284	0.549
285	0.513
286	0.480
287	0.446
288	0.410
289	0.375
290	0.343
291	0.309
292	0.274
293	0.242
294	0.212
295	0.183
296	0.160
297	0.142
298	0.126
299	0.108
300	0.097
301	0.089
302	0.078
303	0.073
304	0.066
305	0.061
306	0.057
307	0.058
308	0.052
309	0.047
310	0.045
311	0.044
312	0.042
313	0.038
314	0.035
315	0.028
316	0.028
317	0.027
318	0.027
319	0.025
320	0.025
321	0.023
322	0.022
323	0.023
324	0.024
325	0.023
326	0.020
327	0.017
328	0.018
329	0.018
330	0.021
331	0.019
332	0.019
333	0.021
334	0.020
335	0.014
336	0.010
337	0.007
338	0.004
339	0.004
340	0.000
341	-0.001
342	0.000
343	0.006
344	0.006
345	0.003
346	0.001
347	0.000
348	0.001
349	-0.003
350	-0.006


22
19/07/2018 11:14:14 AM
Wavelength (nm)	Absorbance
220	0.873
221	0.824
222	0.782
223	0.749
224	0.713
225	0.685
226	0.662
227	0.647
228	0.642
229	0.641
230	0.640
231	0.638
232	0.642
233	0.646
234	0.654
235	0.670
236	0.683
237	0.699
238	0.725
239	0.753
240	0.778
241	0.805
242	0.832
243	0.857
244	0.890
245	0.916
246	0.936
247	0.960
248	0.989
249	1.013
250	1.032
251	1.047
252	1.066
253	1.089
254	1.106
255	1.121
256	1.122
257	1.120
258	1.112
259	1.109
260	1.106
261	1.100
262	1.089
263	1.073
264	1.062
265	1.042
266	1.020
267	0.996
268	0.965
269	0.932
270	0.909
271	0.881
272	0.854
273	0.825
274	0.798
275	0.770
276	0.742
277	0.715
278	0.681
279	0.646
280	0.611
281	0.579
282	0.544
283	0.511
284	0.479
285	0.450
286	0.420
287	0.390
288	0.362
289	0.332
290	0.305
291	0.277
292	0.248
293	0.220
294	0.197
295	0.171
296	0.150
297	0.134
298	0.121
299	0.107
300	0.095
301	0.089
302	0.081
303	0.075
304	0.070
305	0.063
306	0.060
307	0.059
308	0.055
309	0.051
310	0.045
311	0.043
312	0.039
313	0.036
314	0.031
315	0.028
316	0.027
317	0.025
318	0.026
319	0.027
320	0.032
321	0.034
322	0.034
323	0.031
324	0.030
325	0.030
326	0.027
327	0.024
328	0.020
329	0.016
330	0.019
331	0.019
332	0.019
333	0.018
334	0.022
335	0.017
336	0.014
337	0.011
338	0.006
339	0.002
340	0.000
341	-0.002
342	-0.003
343	0.002
344	0.003
345	0.002
346	0.001
347	0.005
348	0.005
349	0.002
350	0.000


23
19/07/2018 11:15:08 AM
Wavelength (nm)	Absorbance
220	1.009
221	0.959
222	0.913
223	0.876
224	0.838
225	0.805
226	0.783
227	0.765
228	0.759
229	0.756
230	0.755
231	0.753
232	0.756
233	0.760
234	0.765
235	0.782
236	0.798
237	0.820
238	0.846
239	0.881
240	0.910
241	0.939
242	0.970
243	0.998
244	1.033
245	1.059
246	1.081
247	1.107
248	1.139
249	1.167
250	1.186
251	1.203
252	1.227
253	1.255
254	1.274
255	1.288
256	1.292
257	1.290
258	1.283
259	1.280
260	1.277
261	1.268
262	1.258
263	1.241
264	1.226
265	1.202
266	1.180
267	1.155
268	1.120
269	1.083
270	1.054
271	1.025
272	0.995
273	0.963
274	0.931
275	0.898
276	0.865
277	0.835
278	0.798
279	0.756
280	0.716
281	0.680
282	0.641
283	0.603
284	0.564
285	0.527
286	0.494
287	0.459
288	0.424
289	0.389
290	0.355
291	0.321
292	0.286
293	0.256
294	0.228
295	0.200
296	0.176
297	0.158
298	0.143
299	0.129
300	0.117
301	0.107
302	0.097
303	0.090
304	0.084
305	0.078
306	0.075
307	0.078
308	0.072
309	0.068
310	0.064
311	0.060
312	0.055
313	0.051
314	0.045
315	0.038
316	0.037
317	0.034
318	0.032
319	0.031
320	0.037
321	0.038
322	0.036
323	0.035
324	0.036
325	0.035
326	0.033
327	0.030
328	0.026
329	0.021
330	0.020
331	0.017
332	0.014
333	0.013
334	0.012
335	0.006
336	0.006
337	0.005
338	0.002
339	-0.001
340	0.000
341	-0.001
342	0.001
343	0.004
344	0.001
345	-0.002
346	-0.006
347	-0.004
348	-0.007
349	-0.012
350	-0.013


24
19/07/2018 11:16:01 AM
Wavelength (nm)	Absorbance
220	1.394
221	1.334
222	1.285
223	1.242
224	1.198
225	1.165
226	1.133
227	1.108
228	1.100
229	1.094
230	1.091
231	1.085
232	1.087
233	1.088
234	1.092
235	1.105
236	1.116
237	1.134
238	1.159
239	1.192
240	1.216
241	1.244
242	1.271
243	1.301
244	1.330
245	1.354
246	1.376
247	1.403
248	1.433
249	1.458
250	1.477
251	1.492
252	1.518
253	1.546
254	1.562
255	1.572
256	1.577
257	1.569
258	1.556
259	1.552
260	1.545
261	1.535
262	1.522
263	1.502
264	1.481
265	1.453
266	1.426
267	1.393
268	1.356
269	1.316
270	1.284
271	1.253
272	1.222
273	1.190
274	1.157
275	1.125
276	1.089
277	1.054
278	1.012
279	0.964
280	0.917
281	0.874
282	0.828
283	0.781
284	0.736
285	0.695
286	0.656
287	0.617
288	0.577
289	0.537
290	0.501
291	0.465
292	0.427
293	0.393
294	0.358
295	0.325
296	0.297
297	0.276
298	0.258
299	0.239
300	0.224
301	0.212
302	0.201
303	0.190
304	0.180
305	0.170
306	0.162
307	0.161
308	0.154
309	0.148
310	0.144
311	0.138
312	0.132
313	0.126
314	0.119
315	0.110
316	0.103
317	0.099
318	0.094
319	0.092
320	0.090
321	0.088
322	0.081
323	0.077
324	0.075
325	0.068
326	0.065
327	0.060
328	0.059
329	0.051
330	0.051
331	0.046
332	0.042
333	0.041
334	0.038
335	0.027
336	0.021
337	0.017
338	0.010
339	0.005
340	0.000
341	-0.003
342	-0.005
343	-0.003
344	-0.007
345	-0.013
346	-0.017
347	-0.017
348	-0.018
349	-0.025
350	-0.031
